119_PET_FCR_2
Integration time [ms]: 100,000
Averaging Nr. [scans]: 1
Smoothing Nr. [pixels]: 0
Data measured with spectrometer [name]: 1204091U1
Wave   ;Sample   ;Dark     ;Reference;Reflectance
[nm]   ;[counts] ;[counts] ;[counts] ;[%]

1014,48; 6541,000; 2453,000; 7571,000;79,87495
1019,01; 6895,000; 2571,000; 8072,000;78,60389
1023,54; 7289,000; 2760,000; 8557,000;78,12662
1028,07; 7371,000; 2645,000; 8728,000;77,69193
1032,59; 7492,000; 2542,000; 8976,000;76,93503
1037,10; 7804,000; 2552,000; 9493,000;75,66633
1041,62; 8101,000; 2645,000; 9874,000;75,47379
1046,12; 8794,000; 3172,000;10692,000;74,76064
1050,62; 8443,000; 2658,000;10426,000;74,47219
1055,12; 8436,000; 2509,000;10544,000;73,76478
1059,62; 8344,000; 2352,000;10536,000;73,21603
1064,10; 8904,000; 2726,000;11217,000;72,75939
1068,59; 9231,000; 2932,000;11644,000;72,30257
1073,07; 9229,000; 2693,000;11791,000;71,83996
1077,54; 9256,000; 2612,000;11902,000;71,51776
1082,01; 9602,000; 2824,000;12356,000;71,10785
1086,48; 9756,000; 2801,000;12632,000;70,74560
1090,94; 9389,000; 2380,000;12314,000;70,55567
1095,39;10562,000; 3344,000;13669,000;69,90799
1099,85;10008,000; 2612,000;13309,000;69,14088
1104,29;10151,000; 2682,000;13632,000;68,21005
1108,73; 9776,000; 2312,000;13510,000;66,65476
1113,17;10340,000; 3042,000;14359,000;64,48705
1117,61; 9835,000; 2646,000;14198,000;62,23165
1122,03;10066,000; 3046,000;14722,000;60,12333
1126,46; 9413,000; 2527,000;14400,000;57,99714
1130,88; 9412,000; 2466,000;14495,000;57,74379
1135,29;10254,000; 3111,000;15219,000;58,99405
1139,70; 9925,000; 2407,000;14793,000;60,69756
1144,11;10177,000; 2489,000;14967,000;61,61244
1148,51;10268,000; 2565,000;15172,000;61,10098
1152,90;10286,000; 2579,000;15293,000;60,61822
1157,29; 9965,000; 2339,000;15111,000;59,70874
1161,68;10216,000; 2547,000;15452,000;59,42658
1166,06;10056,000; 2534,000;15403,000;58,45054
1170,44;10186,000; 2810,000;15520,000;58,03304
1174,81; 9707,000; 2521,000;14948,000;57,82570
1179,18; 9874,000; 2667,000;15071,000;58,10223
1183,54;10078,000; 2847,000;15116,000;58,93716
1187,90;10182,000; 2891,000;15091,000;59,76230
1192,25; 9987,000; 2667,000;14694,000;60,86306
1196,60; 9855,000; 2522,000;14434,000;61,55977
1200,94;10037,000; 2733,000;14497,000;62,08773
1205,28; 9781,000; 2575,000;14032,000;62,89605
1209,62; 9859,000; 2673,000;14073,000;63,03509
1213,95; 9943,000; 2827,000;14061,000;63,34342
1218,27; 9445,000; 2397,000;13503,000;63,46119
1222,59; 9854,000; 3050,000;13756,000;63,55315
1226,91; 9592,000; 2791,000;13486,000;63,59046
1231,22; 9223,000; 2566,000;13022,000;63,66679
1235,52; 8759,000; 2255,000;12518,000;63,37328
1239,82; 9086,000; 2660,000;12731,000;63,80697
1244,12; 8685,000; 2513,000;12276,000;63,21827
1248,41; 8924,000; 2839,000;12479,000;63,12241
1252,70; 8059,000; 2157,000;11531,000;62,96138
1256,98; 8283,000; 2405,000;11723,000;63,08221
1261,26; 8693,000; 2898,000;12129,000;62,77760
1265,53; 7928,000; 2242,000;11284,000;62,88432
1269,80; 8044,000; 2393,000;11431,000;62,52489
1274,06; 8353,000; 2810,000;11639,000;62,78174
1278,32; 8035,000; 2550,000;11295,000;62,72156
1282,57; 8018,000; 2625,000;11256,000;62,48407
1286,82; 7782,000; 2467,000;11002,000;62,27299
1291,06; 7958,000; 2738,000;11125,000;62,23918
1295,30; 7872,000; 2653,000;11013,000;62,42823
1299,53; 7957,000; 2787,000;11181,000;61,59161
1303,76; 7735,000; 2600,000;10932,000;61,62986
1307,99; 8005,000; 2905,000;11203,000;61,46059
1312,20; 7835,000; 2833,000;11044,000;60,91828
1316,42; 7338,000; 2476,000;10478,000;60,75981
1320,63; 7360,000; 2579,000;10484,000;60,48071
1324,83; 6849,000; 2192,000; 9974,000;59,84323
1329,03; 7170,000; 2674,000;10257,000;59,29052
1333,23; 6857,000; 2468,000; 9986,000;58,37989
1337,42; 7089,000; 2764,000;10213,000;58,06148
1341,60; 6560,000; 2379,000; 9662,000;57,40766
1345,78; 6754,000; 2742,000; 9883,000;56,18261
1349,96; 6205,000; 2303,000; 9376,000;55,16754
1354,13; 6266,000; 2510,000; 9449,000;54,12884
1358,29; 6028,000; 2356,000; 9196,000;53,68421
1362,46; 6280,000; 2743,000; 9351,000;53,52603
1366,61; 6147,000; 2731,000; 9181,000;52,96124
1370,76; 5728,000; 2399,000; 8708,000;52,76589
1374,91; 6173,000; 2995,000; 9036,000;52,60718
1379,05; 5480,000; 2366,000; 8178,000;53,57880
1383,18; 6302,000; 3283,000; 9009,000;52,72441
1387,32; 5349,000; 2319,000; 8098,000;52,43122
1391,44; 5344,000; 2327,000; 8096,000;52,29676
1395,56; 6138,000; 3137,000; 8942,000;51,69681
1399,68; 5154,000; 2135,000; 8073,000;50,84203
1403,79; 5349,000; 2329,000; 8366,000;50,02485
1407,90; 5234,000; 2263,000; 8269,000;49,46720
1412,00; 5358,000; 2365,000; 8420,000;49,43022
1416,10; 5697,000; 2718,000; 8761,000;49,29671
1420,19; 5391,000; 2409,000; 8400,000;49,77466
1424,27; 5622,000; 2632,000; 8589,000;50,19305
1428,36; 5695,000; 2719,000; 8620,000;50,43213
1432,43; 5809,000; 2846,000; 8708,000;50,54589
1436,50; 5536,000; 2533,000; 8354,000;51,58907
1440,57; 5739,000; 2732,000; 8530,000;51,86271
1444,63; 5365,000; 2366,000; 8116,000;52,15652
1448,69; 5149,000; 2161,000; 7844,000;52,57786
1452,74; 5458,000; 2447,000; 8116,000;53,11342
1456,79; 5222,000; 2238,000; 7867,000;53,01119
1460,83; 5395,000; 2400,000; 7935,000;54,11021
1464,87; 5674,000; 2691,000; 8180,000;54,34505
1468,90; 5664,000; 2650,000; 8132,000;54,97993
1472,93; 5577,000; 2603,000; 7978,000;55,33023
1476,95; 5583,000; 2611,000; 7981,000;55,34451
1480,96; 5299,000; 2298,000; 7601,000;56,59061
1484,98; 5491,000; 2481,000; 7828,000;56,29325
1488,98; 5560,000; 2611,000; 7844,000;56,35391
1492,98; 5634,000; 2725,000; 7881,000;56,41971
1496,98; 5251,000; 2361,000; 7476,000;56,50049
1500,97; 5667,000; 2789,000; 7826,000;57,13718
1504,96; 5023,000; 2172,000; 7164,000;57,11138
1508,94; 5630,000; 2773,000; 7774,000;57,12857
1512,92; 5175,000; 2382,000; 7342,000;56,31048
1516,89; 5281,000; 2502,000; 7430,000;56,39205
1520,85; 5157,000; 2384,000; 7295,000;56,46508
1524,81; 5697,000; 2962,000; 7824,000;56,25257
1528,77; 5055,000; 2324,000; 7205,000;55,95165
1532,72; 5115,000; 2407,000; 7255,000;55,85809
1536,67; 5570,000; 2883,000; 7677,000;56,04923
1540,61; 4994,000; 2376,000; 7009,000;56,50766
1544,54; 5340,000; 2727,000; 7388,000;56,06093
1548,47; 4753,000; 2158,000; 6748,000;56,53595
1552,40; 5171,000; 2615,000; 7147,000;56,39894
1556,32; 5133,000; 2575,000; 7088,000;56,68070
1560,23; 4969,000; 2484,000; 6850,000;56,91709
1564,15; 5034,000; 2555,000; 6922,000;56,76666
1568,05; 4872,000; 2399,000; 6734,000;57,04729
1571,95; 5173,000; 2725,000; 6961,000;57,79037
1575,84; 4788,000; 2347,000; 6574,000;57,74781
1579,73; 4998,000; 2624,000; 6795,000;56,91681
1583,62; 4915,000; 2543,000; 6679,000;57,35010
1587,50; 4592,000; 2249,000; 6365,000;56,92420
1591,37; 5110,000; 2806,000; 6870,000;56,69291
1595,24; 4746,000; 2531,000; 6521,000;55,51378
1599,11; 4443,000; 2244,000; 6219,000;55,32075
1602,96; 4449,000; 2333,000; 6225,000;54,36793
1606,82; 4276,000; 2230,000; 6074,000;53,22581
1610,67; 4477,000; 2503,000; 6261,000;52,52794
1614,51; 4585,000; 2689,000; 6400,000;51,09135
1618,35; 4121,000; 2276,000; 5907,000;50,81245
1622,18; 4296,000; 2494,000; 6062,000;50,50448
1626,01; 4218,000; 2495,000; 6059,000;48,34456
1629,83; 4244,000; 2571,000; 6064,000;47,89579
1633,65; 4272,000; 2670,000; 6118,000;46,46172
1637,46; 3902,000; 2400,000; 5785,000;44,37223
1641,27; 3734,000; 2327,000; 5711,000;41,57801
1645,07; 3643,000; 2289,000; 5633,000;40,49043
1648,86; 3602,000; 2319,000; 5590,000;39,22348
1652,66; 3490,000; 2259,000; 5557,000;37,32565
1656,44; 3555,000; 2366,000; 5600,000;36,76562
1660,22; 3709,000; 2535,000; 5719,000;36,87186
1664,00; 3885,000; 2684,000; 5850,000;37,93430
1667,77; 3641,000; 2449,000; 5553,000;38,40206
1671,53; 3667,000; 2433,000; 5436,000;41,09224
1675,29; 3551,000; 2285,000; 5318,000;41,74085
1679,05; 3818,000; 2563,000; 5561,000;41,86124
1682,80; 3696,000; 2442,000; 5389,000;42,55175
1686,54; 3968,000; 2708,000; 5604,000;43,50829
1690,28; 3985,000; 2658,000; 5556,000;45,79020
1694,01; 3573,000; 2248,000; 5057,000;47,16981
1697,74; 3679,000; 2391,000; 5182,000;46,14833
1701,46; 3870,000; 2601,000; 5350,000;46,16224
1705,18; 3566,000; 2310,000; 4996,000;46,76098
1708,89; 3472,000; 2233,000; 4884,000;46,73708
1712,60; 3850,000; 2612,000; 5224,000;47,39663
1716,30; 3847,000; 2623,000; 5179,000;47,88732
1720,00; 3871,000; 2660,000; 5201,000;47,65840
1723,69; 3793,000; 2563,000; 5072,000;49,02352
1727,38; 3456,000; 2204,000; 4712,000;49,92026
1731,06; 3755,000; 2496,000; 4968,000;50,93042
1734,73; 3723,000; 2459,000; 4917,000;51,42392
1738,40; 3607,000; 2292,000; 4734,000;53,84930
1742,07; 3980,000; 2663,000; 5138,000;53,21212
1745,73; 3664,000; 2312,000; 4760,000;55,22876
1749,38; 3917,000; 2592,000; 5014,000;54,70685
1753,03; 4021,000; 2685,000; 5008,000;57,51184
1756,67; 3749,000; 2466,000; 4783,000;55,37333
1760,31; 3908,000; 2637,000; 4863,000;57,09793
1763,94; 3816,000; 2564,000; 4778,000;56,54923
1767,57; 3788,000; 2562,000; 4713,000;56,99675
1771,19; 3684,000; 2442,000; 4522,000;59,71154
1774,81; 3814,000; 2565,000; 4651,000;59,87536
1778,42; 3804,000; 2584,000; 4617,000;60,00984
1782,03; 3656,000; 2412,000; 4445,000;61,19036
1785,63; 3568,000; 2341,000; 4330,000;61,68929
1789,22; 3660,000; 2405,000; 4385,000;63,38384
1792,81; 3499,000; 2278,000; 4185,000;64,02727
1796,40; 3430,000; 2182,000; 4076,000;65,89229
1799,98; 3924,000; 2714,000; 4598,000;64,22505
1803,55; 3684,000; 2460,000; 4327,000;65,55972
1807,12; 3560,000; 2348,000; 4172,000;66,44737
1810,68; 4211,000; 2987,000; 4794,000;67,73658
1814,24; 3461,000; 2255,000; 4030,000;67,94366
1817,79; 3968,000; 2759,000; 4513,000;68,92816
1821,34; 4128,000; 2932,000; 4641,000;69,98245
1824,88; 3512,000; 2324,000; 4030,000;69,63658
1828,41; 3785,000; 2587,000; 4283,000;70,63679
1831,94; 3606,000; 2421,000; 4081,000;71,38554
1835,47; 3414,000; 2217,000; 3864,000;72,67760
1838,99; 3770,000; 2598,000; 4226,000;71,99017
1842,50; 3614,000; 2418,000; 4025,000;74,42439
1846,01; 3486,000; 2307,000; 3885,000;74,71483
1849,51; 3275,000; 2156,000; 3694,000;72,75683
1853,01; 3377,000; 2262,000; 3774,000;73,74339
1856,50; 4159,000; 3049,000; 4559,000;73,50993
1859,99; 3295,000; 2201,000; 3668,000;74,57396
1863,47; 3641,000; 2547,000; 3994,000;75,60470
1866,94; 3403,000; 2314,000; 3711,000;77,95276
1870,41; 3812,000; 2737,000; 4119,000;77,78582
1873,88; 3605,000; 2520,000; 3897,000;78,79448
1877,34; 3875,000; 2792,000; 4172,000;78,47826
1880,79; 3812,000; 2713,000; 4037,000;83,00604
1884,24; 3753,000; 2665,000; 3995,000;81,80451
1887,68; 3372,000; 2302,000; 3591,000;83,01009
1891,12; 3214,000; 2172,000; 3462,000;80,77519
1894,55; 3335,000; 2296,000; 3582,000;80,79316
1897,98; 3576,000; 2564,000; 3828,000;80,06329
1901,40; 3330,000; 2344,000; 3603,000;78,31612

