924_ABS_FCR_2
Integration time [ms]: 100,000
Averaging Nr. [scans]: 1
Smoothing Nr. [pixels]: 0
Data measured with spectrometer [name]: 1204091U1
Wave   ;Sample   ;Dark     ;Reference;Reflectance
[nm]   ;[counts] ;[counts] ;[counts] ;[%]

1014,48;10070,000; 2159,000; 6686,000;174,75149
1019,01;10710,000; 2263,000; 7134,000;173,41408
1023,54;11359,000; 2460,000; 7582,000;173,74073
1028,07;11688,000; 2357,000; 7740,000;173,34200
1032,59;12084,000; 2222,000; 7947,000;172,26201
1037,10;12789,000; 2251,000; 8409,000;171,12699
1041,62;13305,000; 2335,000; 8775,000;170,34161
1046,12;14261,000; 2824,000; 9555,000;169,91532
1050,62;14066,000; 2300,000; 9240,000;169,53890
1055,12;14372,000; 2181,000; 9387,000;169,17846
1059,62;14440,000; 2009,000; 9358,000;169,15227
1064,10;15254,000; 2401,000;10031,000;168,45347
1068,59;15774,000; 2570,000;10411,000;168,39689
1073,07;16095,000; 2356,000;10516,000;168,37010
1077,54;16314,000; 2278,000;10631,000;168,03544
1082,01;16848,000; 2486,000;11025,000;168,19300
1086,48;17265,000; 2488,000;11325,000;167,21738
1090,94;16959,000; 2081,000;10975,000;167,28131
1095,39;18435,000; 3026,000;12290,000;166,33204
1099,85;18187,000; 2345,000;11921,000;165,43442
1104,29;18562,000; 2403,000;12226,000;164,50168
1108,73;18482,000; 2060,000;12064,000;164,15434
1113,17;19255,000; 2768,000;12897,000;162,77026
1117,61;19033,000; 2351,000;12709,000;161,05426
1122,03;19441,000; 2714,000;13178,000;159,85283
1126,46;18957,000; 2237,000;12873,000;157,20196
1130,88;18737,000; 2154,000;12946,000;153,66012
1135,29;19077,000; 2780,000;13624,000;150,28587
1139,70;18446,000; 2109,000;13204,000;147,24651
1144,11;18578,000; 2181,000;13375,000;146,48026
1148,51;18936,000; 2244,000;13522,000;148,00497
1152,90;19378,000; 2301,000;13707,000;149,71945
1157,29;19462,000; 2006,000;13470,000;152,26797
1161,68;19983,000; 2262,000;13824,000;153,26933
1166,06;19909,000; 2248,000;13803,000;152,84293
1170,44;19944,000; 2494,000;13961,000;152,17581
1174,81;19207,000; 2196,000;13387,000;152,00608
1179,18;19245,000; 2339,000;13505,000;151,40605
1183,54;19149,000; 2531,000;13570,000;150,53900
1187,90;18962,000; 2580,000;13523,000;149,70301
1192,25;18448,000; 2379,000;13172,000;148,88354
1196,60;18025,000; 2222,000;12903,000;147,95431
1200,94;18006,000; 2485,000;12994,000;147,69245
1205,28;17530,000; 2285,000;12529,000;148,81882
1209,62;17667,000; 2418,000;12639,000;149,19284
1213,95;17700,000; 2543,000;12596,000;150,77091
1218,27;17308,000; 2113,000;12057,000;152,80571
1222,59;17529,000; 2762,000;12319,000;154,51502
1226,91;17319,000; 2482,000;12036,000;155,29621
1231,22;16971,000; 2269,000;11621,000;157,20701
1235,52;16532,000; 1935,000;11126,000;158,81841
1239,82;16756,000; 2360,000;11354,000;160,06226
1244,12;16294,000; 2191,000;10953,000;160,95640
1248,41;16543,000; 2519,000;11152,000;162,44643
1252,70;15507,000; 1808,000;10246,000;162,34890
1256,98;15796,000; 2069,000;10481,000;163,18355
1261,26;16216,000; 2578,000;10887,000;164,13528
1265,53;15221,000; 1911,000;10040,000;163,73478
1269,80;15423,000; 2085,000;10196,000;164,44335
1274,06;15575,000; 2472,000;10429,000;164,67262
1278,32;15246,000; 2246,000;10116,000;165,18424
1282,57;15250,000; 2315,000;10115,000;165,83333
1286,82;14906,000; 2159,000; 9878,000;165,13797
1291,06;14987,000; 2434,000; 9974,000;166,48541
1295,30;14911,000; 2354,000; 9886,000;166,71535
1299,53;15105,000; 2461,000;10030,000;167,04981
1303,76;14861,000; 2315,000; 9771,000;168,26717
1307,99;15113,000; 2633,000;10041,000;168,46652
1312,20;14877,000; 2539,000; 9875,000;168,18430
1316,42;14265,000; 2175,000; 9339,000;168,76047
1320,63;14112,000; 2246,000; 9303,000;168,14510
1324,83;13556,000; 1875,000; 8811,000;168,41119
1329,03;13790,000; 2294,000; 9122,000;168,36555
1333,23;13388,000; 2137,000; 8853,000;167,52531
1337,42;13574,000; 2453,000; 9095,000;167,43451
1341,60;12960,000; 2063,000; 8573,000;167,38863
1345,78;13088,000; 2407,000; 8779,000;167,62398
1349,96;12513,000; 1977,000; 8295,000;166,76163
1354,13;12500,000; 2218,000; 8428,000;165,57166
1358,29;12229,000; 2040,000; 8181,000;165,91760
1362,46;12228,000; 2455,000; 8370,000;165,22401
1366,61;11920,000; 2409,000; 8197,000;164,32274
1370,76;11388,000; 2106,000; 7751,000;164,42870
1374,91;11454,000; 2653,000; 8072,000;162,41004
1379,05;10486,000; 2056,000; 7236,000;162,74131
1383,18;11174,000; 2983,000; 8057,000;161,43082
1387,32;10230,000; 2042,000; 7174,000;159,54793
1391,44;10196,000; 2029,000; 7155,000;159,32501
1395,56;11033,000; 2838,000; 7994,000;158,94104
1399,68;10193,000; 1864,000; 7116,000;158,58720
1403,79;10379,000; 2045,000; 7382,000;156,15514
1407,90;10259,000; 1975,000; 7279,000;156,18401
1412,00;10370,000; 2064,000; 7433,000;154,70292
1416,10;10718,000; 2407,000; 7775,000;154,82489
1420,19;10492,000; 2106,000; 7422,000;157,75019
1424,27;10599,000; 2292,000; 7597,000;156,58812
1428,36;10665,000; 2373,000; 7627,000;157,82261
1432,43;10781,000; 2538,000; 7760,000;157,85140
1436,50;10363,000; 2221,000; 7397,000;157,30294
1440,57;10572,000; 2379,000; 7559,000;158,16602
1444,63;10099,000; 2054,000; 7190,000;156,63941
1448,69; 9866,000; 1832,000; 6909,000;158,24306
1452,74;10134,000; 2149,000; 7178,000;158,77908
1456,79; 9827,000; 1924,000; 6934,000;157,74451
1460,83; 9910,000; 2085,000; 7017,000;158,65775
1464,87;10125,000; 2389,000; 7273,000;158,39476
1468,90;10153,000; 2366,000; 7250,000;159,43898
1472,93; 9901,000; 2274,000; 7073,000;158,92894
1476,95; 9931,000; 2304,000; 7073,000;159,92871
1480,96; 9549,000; 2026,000; 6740,000;159,58846
1484,98; 9768,000; 2214,000; 6916,000;160,65504
1488,98; 9688,000; 2321,000; 6981,000;158,09013
1492,98; 9728,000; 2415,000; 6974,000;160,40798
1496,98; 9305,000; 2066,000; 6594,000;159,87191
1500,97; 9624,000; 2503,000; 6934,000;160,70864
1504,96; 8998,000; 1869,000; 6310,000;160,52691
1508,94; 9568,000; 2442,000; 6874,000;160,78520
1512,92; 9146,000; 2047,000; 6459,000;160,90209
1516,89; 9232,000; 2181,000; 6559,000;161,05528
1520,85; 9122,000; 2039,000; 6397,000;162,52868
1524,81; 9647,000; 2622,000; 6923,000;163,33411
1528,77; 8966,000; 1993,000; 6335,000;160,59420
1532,72; 9025,000; 2083,000; 6385,000;161,36681
1536,67; 9362,000; 2574,000; 6827,000;159,60498
1540,61; 8621,000; 2053,000; 6158,000;160,00000
1544,54; 9027,000; 2397,000; 6559,000;159,29841
1548,47; 8387,000; 1870,000; 5963,000;159,22306
1552,40; 8664,000; 2311,000; 6340,000;157,68181
1556,32; 8605,000; 2289,000; 6299,000;157,50623
1560,23; 8400,000; 2216,000; 6063,000;160,74864
1564,15; 8485,000; 2266,000; 6123,000;161,23931
1568,05; 8219,000; 2111,000; 5937,000;159,64454
1571,95; 8466,000; 2431,000; 6174,000;161,23430
1575,84; 8120,000; 2066,000; 5767,000;163,57741
1579,73; 8198,000; 2334,000; 5973,000;161,14317
1583,62; 8038,000; 2251,000; 5853,000;160,66074
1587,50; 7671,000; 1973,000; 5552,000;159,20648
1591,37; 8109,000; 2501,000; 6051,000;157,97183
1595,24; 7730,000; 2195,000; 5695,000;158,14286
1599,11; 7389,000; 1935,000; 5426,000;156,23031
1602,96; 7381,000; 2027,000; 5422,000;157,70250
1606,82; 7221,000; 1926,000; 5276,000;158,05970
1610,67; 7298,000; 2202,000; 5507,000;154,19062
1614,51; 7333,000; 2375,000; 5635,000;152,08589
1618,35; 6728,000; 1955,000; 5143,000;149,71769
1622,18; 6826,000; 2163,000; 5307,000;148,31425
1626,01; 6644,000; 2191,000; 5286,000;143,87722
1629,83; 6561,000; 2237,000; 5309,000;140,75521
1633,65; 6606,000; 2363,000; 5411,000;139,20604
1637,46; 6166,000; 2065,000; 5041,000;137,80242
1641,27; 6149,000; 2043,000; 4995,000;139,09214
1645,07; 6056,000; 2025,000; 4923,000;139,09593
1648,86; 5870,000; 2022,000; 4872,000;135,01754
1652,66; 5853,000; 2009,000; 4849,000;135,35211
1656,44; 5765,000; 2080,000; 4866,000;132,26849
1660,22; 5782,000; 2279,000; 5011,000;128,22108
1664,00; 5806,000; 2386,000; 5119,000;125,13721
1667,77; 5419,000; 2147,000; 4820,000;122,40928
1671,53; 5184,000; 2096,000; 4676,000;119,68992
1675,29; 5044,000; 1956,000; 4597,000;116,92541
1679,05; 5335,000; 2235,000; 4841,000;118,95625
1682,80; 5205,000; 2121,000; 4673,000;120,84639
1686,54; 5359,000; 2345,000; 4882,000;118,80173
1690,28; 5308,000; 2330,000; 4848,000;118,26847
1694,01; 4828,000; 1942,000; 4390,000;117,89216
1697,74; 5031,000; 2079,000; 4510,000;121,43151
1701,46; 5186,000; 2282,000; 4676,000;121,30326
1705,18; 4955,000; 2006,000; 4351,000;125,75693
1708,89; 4778,000; 1911,000; 4242,000;122,99442
1712,60; 5122,000; 2253,000; 4569,000;123,87737
1716,30; 5087,000; 2295,000; 4547,000;123,97869
1720,00; 5073,000; 2337,000; 4572,000;122,41611
1723,69; 5007,000; 2261,000; 4469,000;124,36594
1727,38; 4705,000; 1905,000; 4079,000;128,79485
1731,06; 5031,000; 2204,000; 4366,000;130,75856
1734,73; 4947,000; 2153,000; 4269,000;132,04159
1738,40; 4786,000; 1998,000; 4086,000;133,52490
1742,07; 5099,000; 2398,000; 4492,000;128,98758
1745,73; 4804,000; 2036,000; 4113,000;133,26914
1749,38; 4993,000; 2316,000; 4333,000;132,72186
1753,03; 4905,000; 2360,000; 4336,000;128,79555
1756,67; 4705,000; 2169,000; 4109,000;130,72165
1760,31; 4847,000; 2287,000; 4202,000;133,68146
1763,94; 4778,000; 2226,000; 4114,000;135,16949
1767,57; 4680,000; 2202,000; 4056,000;133,65696
1771,19; 4548,000; 2090,000; 3874,000;137,78027
1774,81; 4686,000; 2248,000; 4032,000;136,65919
1778,42; 4607,000; 2269,000; 4027,000;132,99204
1782,03; 4421,000; 2095,000; 3823,000;134,60648
1785,63; 4324,000; 2035,000; 3722,000;135,68465
1789,22; 4310,000; 2111,000; 3791,000;130,89286
1792,81; 4203,000; 1992,000; 3582,000;139,05660
1796,40; 4099,000; 1886,000; 3487,000;138,22611
1799,98; 4620,000; 2449,000; 4025,000;137,75381
1803,55; 4314,000; 2183,000; 3731,000;137,66150
1807,12; 4253,000; 2061,000; 3579,000;144,40053
1810,68; 4913,000; 2694,000; 4197,000;147,63806
1814,24; 4091,000; 1955,000; 3431,000;144,71545
1817,79; 4508,000; 2464,000; 3918,000;140,57772
1821,34; 4655,000; 2605,000; 4045,000;142,36111
1824,88; 4088,000; 2018,000; 3427,000;146,91270
1828,41; 4308,000; 2289,000; 3672,000;145,98698
1831,94; 4125,000; 2125,000; 3487,000;146,84288
1835,47; 3894,000; 1906,000; 3243,000;148,69110
1838,99; 4189,000; 2296,000; 3612,000;143,84498
1842,50; 4036,000; 2133,000; 3433,000;146,38462
1846,01; 3854,000; 2020,000; 3270,000;146,72000
1849,51; 3656,000; 1814,000; 3091,000;144,24432
1853,01; 3735,000; 1929,000; 3201,000;141,98113
1856,50; 4520,000; 2700,000; 3984,000;141,74455
1859,99; 3654,000; 1862,000; 3058,000;149,83278
1863,47; 3969,000; 2216,000; 3413,000;146,44946
1866,94; 3650,000; 2005,000; 3183,000;139,64346
1870,41; 4121,000; 2432,000; 3602,000;144,35897
1873,88; 3928,000; 2210,000; 3354,000;150,17483
1877,34; 4165,000; 2493,000; 3625,000;147,70318
1880,79; 4026,000; 2396,000; 3490,000;148,99452
1884,24; 4021,000; 2396,000; 3479,000;150,04617
1887,68; 3598,000; 2020,000; 3039,000;154,85770
1891,12; 3490,000; 1891,000; 2931,000;153,75000
1894,55; 3590,000; 2022,000; 3034,000;154,94071
1897,98; 3845,000; 2272,000; 3275,000;156,82951
1901,40; 3540,000; 2030,000; 3031,000;150,84915

